PE UV       SUBTECH     SPECTRUM    ASCII       PEDS        4.00        
   -1
Sample612.Sample.asc
10/11/26
11:26:56.00
10/11/26
11:26:56.00
Analyst
Specchio solarlux su Pilkington Microwhite 0.95 by Reflex
300.000000
1
Lambda 950
950N6032301
PerkinElmer UV WinLab 5.1.5.0637 / 1.61.00 Lambda 900

0
0
3350/servo 860.8/2
0
0
UV/VIS
1
1
1
RBeamAtt,SBeamAtt,150mm sphere / downward view
0
0
0
0
Program
Program
3350/servo 860.8/2
3350/1 860.8/1
3350/1 860.8/1
0
1
 
 
 
0
 
860.8
319.2
860.8
Front
100
 
S:100 R:100
 
0
0
0
 
0
 
 
 
0
 
 
0
0
0
0
0
 
 
 
 
0
0
#HDR
-1
-1
#GR
nm
%T
1.0
0.0
2500.000000
-1.000000
2201
8
120.261683
7.138194
#DATA
2500.000000	96.964552
2499.000000	96.688913
2498.000000	96.654575
2497.000000	96.935476
2496.000000	96.624375
2495.000000	96.410995
2494.000000	96.243339
2493.000000	96.291625
2492.000000	96.803125
2491.000000	96.618259
2490.000000	96.498697
2489.000000	96.543476
2488.000000	96.643685
2487.000000	97.169517
2486.000000	96.602340
2485.000000	96.122816
2484.000000	96.167396
2483.000000	96.280973
2482.000000	96.741822
2481.000000	97.056878
2480.000000	96.909817
2479.000000	96.535040
2478.000000	96.708290
2477.000000	97.188093
2476.000000	97.111660
2475.000000	96.344159
2474.000000	96.808623
2473.000000	97.091558
2472.000000	96.676055
2471.000000	97.593593
2470.000000	96.842761
2469.000000	97.095025
2468.000000	96.859269
2467.000000	97.230960
2466.000000	97.081842
2465.000000	96.351476
2464.000000	96.793617
2463.000000	96.446346
2462.000000	96.749667
2461.000000	97.395717
2460.000000	96.646997
2459.000000	97.496211
2458.000000	97.464967
2457.000000	97.494938
2456.000000	97.547572
2455.000000	97.477064
2454.000000	97.016842
2453.000000	96.645309
2452.000000	97.129761
2451.000000	97.851263
2450.000000	97.141048
2449.000000	97.297857
2448.000000	97.290567
2447.000000	97.210828
2446.000000	97.466307
2445.000000	97.394502
2444.000000	96.552737
2443.000000	96.793684
2442.000000	97.711199
2441.000000	97.448982
2440.000000	96.718998
2439.000000	97.324533
2438.000000	97.207521
2437.000000	97.470967
2436.000000	97.548198
2435.000000	97.276395
2434.000000	97.398132
2433.000000	97.773825
2432.000000	97.573183
2431.000000	97.593391
2430.000000	97.786393
2429.000000	97.523866
2428.000000	97.202015
2427.000000	97.614612
2426.000000	97.729538
2425.000000	97.591947
2424.000000	97.517330
2423.000000	97.577017
2422.000000	97.415202
2421.000000	97.510752
2420.000000	97.284940
2419.000000	97.710916
2418.000000	97.935142
2417.000000	97.425385
2416.000000	97.362380
2415.000000	97.786815
2414.000000	97.758905
2413.000000	97.387887
2412.000000	97.630791
2411.000000	97.926717
2410.000000	98.013732
2409.000000	97.937345
2408.000000	98.054540
2407.000000	98.097820
2406.000000	97.756377
2405.000000	97.924647
2404.000000	98.087539
2403.000000	98.105376
2402.000000	97.887500
2401.000000	97.900200
2400.000000	97.507031
2399.000000	97.500867
2398.000000	97.613673
2397.000000	97.662889
2396.000000	97.692135
2395.000000	97.784059
2394.000000	97.894815
2393.000000	97.859651
2392.000000	97.778851
2391.000000	97.611641
2390.000000	98.032975
2389.000000	98.156844
2388.000000	98.061216
2387.000000	97.935512
2386.000000	97.926081
2385.000000	97.840759
2384.000000	97.392814
2383.000000	97.744313
2382.000000	98.053021
2381.000000	98.197573
2380.000000	98.267943
2379.000000	97.872106
2378.000000	97.938433
2377.000000	98.026680
2376.000000	98.113287
2375.000000	98.377312
2374.000000	98.384336
2373.000000	98.134016
2372.000000	97.927713
2371.000000	97.887711
2370.000000	98.160436
2369.000000	98.316704
2368.000000	98.027368
2367.000000	97.905028
2366.000000	97.884602
2365.000000	98.073457
2364.000000	97.999759
2363.000000	97.770310
2362.000000	97.690985
2361.000000	97.944671
2360.000000	98.086075
2359.000000	98.069907
2358.000000	98.030797
2357.000000	97.781753
2356.000000	98.028804
2355.000000	97.887896
2354.000000	97.724304
2353.000000	97.917944
2352.000000	98.276115
2351.000000	98.068220
2350.000000	98.047305
2349.000000	98.038089
2348.000000	97.977076
2347.000000	97.903173
2346.000000	97.667053
2345.000000	97.921674
2344.000000	98.405181
2343.000000	97.990521
2342.000000	98.285005
2341.000000	98.375744
2340.000000	98.018368
2339.000000	97.936746
2338.000000	98.108200
2337.000000	98.245633
2336.000000	98.089609
2335.000000	98.184389
2334.000000	98.291407
2333.000000	97.918585
2332.000000	97.899638
2331.000000	98.050553
2330.000000	98.081293
2329.000000	98.060465
2328.000000	97.943047
2327.000000	98.001539
2326.000000	98.154677
2325.000000	98.271265
2324.000000	97.979947
2323.000000	98.195142
2322.000000	97.844111
2321.000000	98.088445
2320.000000	98.120068
2319.000000	98.101771
2318.000000	97.952941
2317.000000	97.849621
2316.000000	97.881321
2315.000000	97.910868
2314.000000	98.142807
2313.000000	98.188293
2312.000000	98.034899
2311.000000	98.212440
2310.000000	98.173626
2309.000000	98.171187
2308.000000	97.915476
2307.000000	98.145330
2306.000000	98.052170
2305.000000	97.782005
2304.000000	97.925777
2303.000000	97.811328
2302.000000	97.999596
2301.000000	98.179917
2300.000000	98.005069
2299.000000	97.873586
2298.000000	97.984252
2297.000000	98.187023
2296.000000	98.303733
2295.000000	97.928308
2294.000000	98.071838
2293.000000	97.666344
2292.000000	97.935660
2291.000000	98.060464
2290.000000	98.043229
2289.000000	97.858850
2288.000000	97.943833
2287.000000	97.986408
2286.000000	97.975338
2285.000000	98.120707
2284.000000	98.001029
2283.000000	98.023504
2282.000000	98.020191
2281.000000	97.716777
2280.000000	97.858904
2279.000000	97.841129
2278.000000	97.923994
2277.000000	97.973861
2276.000000	97.877742
2275.000000	97.855288
2274.000000	98.068298
2273.000000	97.778772
2272.000000	97.729333
2271.000000	97.554824
2270.000000	97.752839
2269.000000	97.781855
2268.000000	97.718620
2267.000000	97.626854
2266.000000	97.810090
2265.000000	97.819508
2264.000000	97.811027
2263.000000	97.998812
2262.000000	97.855814
2261.000000	97.578070
2260.000000	97.606557
2259.000000	97.686881
2258.000000	97.753714
2257.000000	97.941087
2256.000000	97.894317
2255.000000	97.756239
2254.000000	97.602579
2253.000000	97.819304
2252.000000	97.816052
2251.000000	97.635861
2250.000000	97.867025
2249.000000	97.761644
2248.000000	97.432788
2247.000000	97.548534
2246.000000	97.824501
2245.000000	97.694137
2244.000000	97.672533
2243.000000	97.633341
2242.000000	97.513968
2241.000000	97.856189
2240.000000	97.641824
2239.000000	97.582016
2238.000000	97.712710
2237.000000	97.773507
2236.000000	97.815557
2235.000000	97.719654
2234.000000	97.670254
2233.000000	97.565134
2232.000000	97.684801
2231.000000	97.474704
2230.000000	97.672730
2229.000000	97.537706
2228.000000	97.758412
2227.000000	97.581271
2226.000000	97.490891
2225.000000	97.642750
2224.000000	97.664413
2223.000000	97.648355
2222.000000	97.622676
2221.000000	97.652481
2220.000000	97.684013
2219.000000	97.727856
2218.000000	97.694175
2217.000000	97.602855
2216.000000	97.738935
2215.000000	97.738353
2214.000000	97.663131
2213.000000	97.564000
2212.000000	97.525667
2211.000000	97.663379
2210.000000	97.561661
2209.000000	97.662147
2208.000000	97.843471
2207.000000	97.984110
2206.000000	97.963844
2205.000000	97.775740
2204.000000	97.752307
2203.000000	97.797936
2202.000000	97.970279
2201.000000	97.857421
2200.000000	97.899168
2199.000000	97.942714
2198.000000	97.864018
2197.000000	97.980559
2196.000000	98.084151
2195.000000	97.889751
2194.000000	97.921181
2193.000000	98.076896
2192.000000	98.218592
2191.000000	98.144218
2190.000000	98.119096
2189.000000	98.325070
2188.000000	98.432681
2187.000000	98.289571
2186.000000	98.412851
2185.000000	98.343772
2184.000000	98.456203
2183.000000	98.525833
2182.000000	98.449744
2181.000000	98.481051
2180.000000	98.489324
2179.000000	98.614859
2178.000000	98.644106
2177.000000	98.580532
2176.000000	98.668880
2175.000000	98.649362
2174.000000	98.476255
2173.000000	98.561849
2172.000000	98.675871
2171.000000	98.714569
2170.000000	98.649464
2169.000000	98.663943
2168.000000	98.643034
2167.000000	98.638028
2166.000000	98.806374
2165.000000	98.720701
2164.000000	98.714333
2163.000000	98.812611
2162.000000	99.012138
2161.000000	98.958611
2160.000000	98.836664
2159.000000	98.844696
2158.000000	98.892593
2157.000000	98.803719
2156.000000	98.829859
2155.000000	99.053105
2154.000000	99.184027
2153.000000	99.048326
2152.000000	98.794860
2151.000000	98.834636
2150.000000	99.086584
2149.000000	99.066507
2148.000000	99.079838
2147.000000	99.190299
2146.000000	98.983897
2145.000000	98.886439
2144.000000	98.901674
2143.000000	99.066319
2142.000000	99.188110
2141.000000	99.015500
2140.000000	98.936837
2139.000000	98.932260
2138.000000	98.974877
2137.000000	99.001058
2136.000000	99.024049
2135.000000	98.993781
2134.000000	99.202036
2133.000000	99.268072
2132.000000	99.077579
2131.000000	99.190287
2130.000000	99.184947
2129.000000	99.078131
2128.000000	99.072957
2127.000000	99.104705
2126.000000	99.255674
2125.000000	99.240780
2124.000000	99.098504
2123.000000	99.065803
2122.000000	99.086913
2121.000000	99.085579
2120.000000	99.081306
2119.000000	99.189858
2118.000000	99.279305
2117.000000	99.280843
2116.000000	99.227353
2115.000000	99.173404
2114.000000	99.095010
2113.000000	99.159541
2112.000000	99.266214
2111.000000	99.306718
2110.000000	99.225839
2109.000000	99.213031
2108.000000	99.262349
2107.000000	99.189692
2106.000000	99.210831
2105.000000	99.242325
2104.000000	99.277323
2103.000000	99.293760
2102.000000	99.204210
2101.000000	99.214870
2100.000000	99.252703
2099.000000	99.340024
2098.000000	99.277683
2097.000000	99.206166
2096.000000	99.101926
2095.000000	99.228911
2094.000000	99.273409
2093.000000	99.243185
2092.000000	99.311056
2091.000000	99.231943
2090.000000	99.250978
2089.000000	99.318844
2088.000000	99.289302
2087.000000	99.235035
2086.000000	99.248722
2085.000000	99.362220
2084.000000	99.340299
2083.000000	99.283748
2082.000000	99.366408
2081.000000	99.313675
2080.000000	99.270822
2079.000000	99.315495
2078.000000	99.289818
2077.000000	99.324357
2076.000000	99.260622
2075.000000	99.370239
2074.000000	99.317318
2073.000000	99.347312
2072.000000	99.358122
2071.000000	99.413397
2070.000000	99.358347
2069.000000	99.379951
2068.000000	99.344849
2067.000000	99.425397
2066.000000	99.380798
2065.000000	99.323194
2064.000000	99.209535
2063.000000	99.367571
2062.000000	99.306389
2061.000000	99.265739
2060.000000	99.281409
2059.000000	99.353219
2058.000000	99.309648
2057.000000	99.284639
2056.000000	99.287713
2055.000000	99.347612
2054.000000	99.263927
2053.000000	99.418509
2052.000000	99.454702
2051.000000	99.331282
2050.000000	99.401535
2049.000000	99.422145
2048.000000	99.430933
2047.000000	99.421155
2046.000000	99.446199
2045.000000	99.382836
2044.000000	99.403146
2043.000000	99.332673
2042.000000	99.376844
2041.000000	99.444628
2040.000000	99.356694
2039.000000	99.383460
2038.000000	99.335618
2037.000000	99.330765
2036.000000	99.374840
2035.000000	99.296251
2034.000000	99.404895
2033.000000	99.428446
2032.000000	99.463716
2031.000000	99.506721
2030.000000	99.385038
2029.000000	99.398388
2028.000000	99.312770
2027.000000	99.381560
2026.000000	99.458406
2025.000000	99.440570
2024.000000	99.413300
2023.000000	99.540992
2022.000000	99.481059
2021.000000	99.379693
2020.000000	99.488782
2019.000000	99.486516
2018.000000	99.453230
2017.000000	99.435460
2016.000000	99.503051
2015.000000	99.506472
2014.000000	99.429943
2013.000000	99.408348
2012.000000	99.411363
2011.000000	99.369281
2010.000000	99.465687
2009.000000	99.485498
2008.000000	99.555472
2007.000000	99.424631
2006.000000	99.429937
2005.000000	99.468552
2004.000000	99.474189
2003.000000	99.459813
2002.000000	99.486167
2001.000000	99.459174
2000.000000	99.511130
1999.000000	99.556122
1998.000000	99.464512
1997.000000	99.423459
1996.000000	99.455909
1995.000000	99.462243
1994.000000	99.526359
1993.000000	99.496907
1992.000000	99.465750
1991.000000	99.528967
1990.000000	99.524121
1989.000000	99.513600
1988.000000	99.519760
1987.000000	99.610707
1986.000000	99.509107
1985.000000	99.542587
1984.000000	99.560982
1983.000000	99.524770
1982.000000	99.524308
1981.000000	99.537385
1980.000000	99.532555
1979.000000	99.534538
1978.000000	99.506398
1977.000000	99.500920
1976.000000	99.531785
1975.000000	99.511458
1974.000000	99.526860
1973.000000	99.577851
1972.000000	99.557562
1971.000000	99.504950
1970.000000	99.535175
1969.000000	99.565810
1968.000000	99.586404
1967.000000	99.541422
1966.000000	99.584353
1965.000000	99.573715
1964.000000	99.533650
1963.000000	99.562890
1962.000000	99.612895
1961.000000	99.601404
1960.000000	99.590650
1959.000000	99.636999
1958.000000	99.598138
1957.000000	99.606832
1956.000000	99.606749
1955.000000	99.599478
1954.000000	99.575827
1953.000000	99.601560
1952.000000	99.633598
1951.000000	99.643667
1950.000000	99.629317
1949.000000	99.594031
1948.000000	99.627743
1947.000000	99.670645
1946.000000	99.638820
1945.000000	99.624147
1944.000000	99.653484
1943.000000	99.575786
1942.000000	99.635491
1941.000000	99.590380
1940.000000	99.615004
1939.000000	99.609435
1938.000000	99.657549
1937.000000	99.676183
1936.000000	99.646281
1935.000000	99.591059
1934.000000	99.668134
1933.000000	99.671963
1932.000000	99.741229
1931.000000	99.675738
1930.000000	99.679346
1929.000000	99.645000
1928.000000	99.647024
1927.000000	99.649075
1926.000000	99.606603
1925.000000	99.613596
1924.000000	99.696512
1923.000000	99.700587
1922.000000	99.718152
1921.000000	99.734188
1920.000000	99.762686
1919.000000	99.757713
1918.000000	99.716870
1917.000000	99.694743
1916.000000	99.703715
1915.000000	99.714503
1914.000000	99.694349
1913.000000	99.710974
1912.000000	99.730932
1911.000000	99.775710
1910.000000	99.726272
1909.000000	99.701565
1908.000000	99.758542
1907.000000	99.760017
1906.000000	99.742821
1905.000000	99.790162
1904.000000	99.739189
1903.000000	99.748154
1902.000000	99.764281
1901.000000	99.731827
1900.000000	99.738976
1899.000000	99.793617
1898.000000	99.752790
1897.000000	99.757950
1896.000000	99.741315
1895.000000	99.710287
1894.000000	99.796229
1893.000000	99.755447
1892.000000	99.787340
1891.000000	99.835472
1890.000000	99.737513
1889.000000	99.715971
1888.000000	99.763522
1887.000000	99.794106
1886.000000	99.802113
1885.000000	99.802511
1884.000000	99.805023
1883.000000	99.810897
1882.000000	99.806124
1881.000000	99.760611
1880.000000	99.755286
1879.000000	99.779642
1878.000000	99.786913
1877.000000	99.778314
1876.000000	99.768640
1875.000000	99.784609
1874.000000	99.797168
1873.000000	99.830682
1872.000000	99.844517
1871.000000	99.832612
1870.000000	99.802827
1869.000000	99.768815
1868.000000	99.798463
1867.000000	99.846585
1866.000000	99.842042
1865.000000	99.863078
1864.000000	99.845892
1863.000000	99.832161
1862.000000	99.852969
1861.000000	99.868482
1860.000000	99.853725
1859.000000	99.845275
1858.000000	99.841693
1857.000000	99.855443
1856.000000	99.847505
1855.000000	99.848490
1854.000000	99.856760
1853.000000	99.846361
1852.000000	99.867575
1851.000000	99.897806
1850.000000	99.887257
1849.000000	99.858463
1848.000000	99.895611
1847.000000	99.893358
1846.000000	99.851614
1845.000000	99.877095
1844.000000	99.926871
1843.000000	99.903563
1842.000000	99.913551
1841.000000	99.919996
1840.000000	99.902347
1839.000000	99.897185
1838.000000	99.912961
1837.000000	99.860943
1836.000000	99.900034
1835.000000	99.937155
1834.000000	99.905314
1833.000000	99.893081
1832.000000	99.918931
1831.000000	99.912173
1830.000000	99.898291
1829.000000	99.924342
1828.000000	99.952368
1827.000000	99.953742
1826.000000	99.964318
1825.000000	99.966181
1824.000000	99.966875
1823.000000	99.993531
1822.000000	99.944055
1821.000000	99.950410
1820.000000	99.936802
1819.000000	99.954632
1818.000000	99.943784
1817.000000	100.041704
1816.000000	100.001471
1815.000000	99.965402
1814.000000	99.993824
1813.000000	99.950890
1812.000000	99.970103
1811.000000	99.985001
1810.000000	99.979125
1809.000000	99.951392
1808.000000	99.971092
1807.000000	99.983729
1806.000000	99.993530
1805.000000	100.006373
1804.000000	99.975304
1803.000000	100.000098
1802.000000	99.971383
1801.000000	99.978831
1800.000000	99.999608
1799.000000	100.011076
1798.000000	100.023522
1797.000000	100.019013
1796.000000	99.978441
1795.000000	100.016761
1794.000000	100.027348
1793.000000	100.022053
1792.000000	100.033815
1791.000000	100.020874
1790.000000	99.998628
1789.000000	100.030182
1788.000000	100.027544
1787.000000	100.030387
1786.000000	100.021167
1785.000000	100.048910
1784.000000	100.079898
1783.000000	100.054099
1782.000000	100.043020
1781.000000	100.082641
1780.000000	100.093920
1779.000000	100.028814
1778.000000	100.103617
1777.000000	100.098925
1776.000000	100.075276
1775.000000	100.079021
1774.000000	100.075576
1773.000000	100.091483
1772.000000	100.082527
1771.000000	100.050857
1770.000000	100.142292
1769.000000	100.071753
1768.000000	100.121769
1767.000000	100.104912
1766.000000	100.117839
1765.000000	100.118029
1764.000000	100.132547
1763.000000	100.158833
1762.000000	100.154431
1761.000000	100.114701
1760.000000	100.125958
1759.000000	100.139933
1758.000000	100.166092
1757.000000	100.151795
1756.000000	100.124308
1755.000000	100.149452
1754.000000	100.167413
1753.000000	100.127059
1752.000000	100.113721
1751.000000	100.170126
1750.000000	100.164118
1749.000000	100.176514
1748.000000	100.175126
1747.000000	100.175121
1746.000000	100.163654
1745.000000	100.155524
1744.000000	100.180728
1743.000000	100.171076
1742.000000	100.187125
1741.000000	100.176889
1740.000000	100.196221
1739.000000	100.212440
1738.000000	100.219793
1737.000000	100.168466
1736.000000	100.193298
1735.000000	100.198735
1734.000000	100.204950
1733.000000	100.200761
1732.000000	100.202313
1731.000000	100.191131
1730.000000	100.202032
1729.000000	100.206361
1728.000000	100.203745
1727.000000	100.241884
1726.000000	100.252849
1725.000000	100.269280
1724.000000	100.271017
1723.000000	100.224866
1722.000000	100.238908
1721.000000	100.250092
1720.000000	100.248423
1719.000000	100.260795
1718.000000	100.257981
1717.000000	100.261043
1716.000000	100.261558
1715.000000	100.258650
1714.000000	100.274600
1713.000000	100.265808
1712.000000	100.268208
1711.000000	100.284613
1710.000000	100.297148
1709.000000	100.281435
1708.000000	100.296734
1707.000000	100.270188
1706.000000	100.286802
1705.000000	100.289669
1704.000000	100.298305
1703.000000	100.301799
1702.000000	100.300056
1701.000000	100.282551
1700.000000	100.298080
1699.000000	100.306401
1698.000000	100.317797
1697.000000	100.308392
1696.000000	100.306511
1695.000000	100.303531
1694.000000	100.294274
1693.000000	100.319715
1692.000000	100.324418
1691.000000	100.315180
1690.000000	100.313834
1689.000000	100.303710
1688.000000	100.290809
1687.000000	100.300603
1686.000000	100.324304
1685.000000	100.343486
1684.000000	100.347295
1683.000000	100.350807
1682.000000	100.332137
1681.000000	100.344534
1680.000000	100.367313
1679.000000	100.357138
1678.000000	100.348355
1677.000000	100.351983
1676.000000	100.361755
1675.000000	100.346726
1674.000000	100.359725
1673.000000	100.390596
1672.000000	100.392914
1671.000000	100.376894
1670.000000	100.389731
1669.000000	100.373031
1668.000000	100.362689
1667.000000	100.368088
1666.000000	100.382850
1665.000000	100.380100
1664.000000	100.369866
1663.000000	100.368670
1662.000000	100.386650
1661.000000	100.391217
1660.000000	100.398627
1659.000000	100.387672
1658.000000	100.385246
1657.000000	100.401659
1656.000000	100.418626
1655.000000	100.421370
1654.000000	100.415889
1653.000000	100.417589
1652.000000	100.413110
1651.000000	100.398260
1650.000000	100.399780
1649.000000	100.405732
1648.000000	100.399285
1647.000000	100.428483
1646.000000	100.419644
1645.000000	100.399471
1644.000000	100.418543
1643.000000	100.417188
1642.000000	100.410511
1641.000000	100.408214
1640.000000	100.396403
1639.000000	100.400430
1638.000000	100.419194
1637.000000	100.439724
1636.000000	100.452199
1635.000000	100.437252
1634.000000	100.432031
1633.000000	100.428216
1632.000000	100.427061
1631.000000	100.426262
1630.000000	100.440499
1629.000000	100.452876
1628.000000	100.449736
1627.000000	100.446394
1626.000000	100.428574
1625.000000	100.436344
1624.000000	100.440074
1623.000000	100.437135
1622.000000	100.448437
1621.000000	100.464102
1620.000000	100.464985
1619.000000	100.464159
1618.000000	100.455299
1617.000000	100.460290
1616.000000	100.465596
1615.000000	100.442220
1614.000000	100.378773
1613.000000	100.346521
1612.000000	100.353490
1611.000000	100.414821
1610.000000	100.447618
1609.000000	100.451040
1608.000000	100.595472
1607.000000	100.665795
1606.000000	100.561456
1605.000000	100.475495
1604.000000	100.461380
1603.000000	100.490289
1602.000000	100.505581
1601.000000	100.480160
1600.000000	100.479571
1599.000000	100.488321
1598.000000	100.490875
1597.000000	100.499689
1596.000000	100.504828
1595.000000	100.474572
1594.000000	100.488695
1593.000000	100.487716
1592.000000	100.480939
1591.000000	100.491966
1590.000000	100.478784
1589.000000	100.475855
1588.000000	100.490065
1587.000000	100.444704
1586.000000	100.411524
1585.000000	100.407213
1584.000000	100.405463
1583.000000	100.409656
1582.000000	100.397476
1581.000000	100.468831
1580.000000	100.494240
1579.000000	100.493335
1578.000000	100.508242
1577.000000	100.502581
1576.000000	100.524480
1575.000000	100.496097
1574.000000	100.504402
1573.000000	100.527249
1572.000000	100.496787
1571.000000	100.492849
1570.000000	100.479464
1569.000000	100.487737
1568.000000	100.507174
1567.000000	100.512459
1566.000000	100.523273
1565.000000	100.506783
1564.000000	100.488379
1563.000000	100.516914
1562.000000	100.510693
1561.000000	100.507639
1560.000000	100.491633
1559.000000	100.502232
1558.000000	100.507793
1557.000000	100.522589
1556.000000	100.528390
1555.000000	100.513537
1554.000000	100.508794
1553.000000	100.501563
1552.000000	100.498372
1551.000000	100.515009
1550.000000	100.514586
1549.000000	100.524227
1548.000000	100.505651
1547.000000	100.507692
1546.000000	100.505726
1545.000000	100.527226
1544.000000	100.520901
1543.000000	100.510622
1542.000000	100.536354
1541.000000	100.522807
1540.000000	100.521996
1539.000000	100.497708
1538.000000	100.508823
1537.000000	100.532660
1536.000000	100.523518
1535.000000	100.510061
1534.000000	100.538428
1533.000000	100.505883
1532.000000	100.511311
1531.000000	100.523684
1530.000000	100.521524
1529.000000	100.524668
1528.000000	100.535207
1527.000000	100.520736
1526.000000	100.547000
1525.000000	100.538399
1524.000000	100.531941
1523.000000	100.519736
1522.000000	100.529586
1521.000000	100.533701
1520.000000	100.518165
1519.000000	100.521075
1518.000000	100.535875
1517.000000	100.516382
1516.000000	100.544124
1515.000000	100.545982
1514.000000	100.519002
1513.000000	100.535942
1512.000000	100.539147
1511.000000	100.533503
1510.000000	100.518677
1509.000000	100.529744
1508.000000	100.527463
1507.000000	100.533214
1506.000000	100.544871
1505.000000	100.525013
1504.000000	100.524829
1503.000000	100.526180
1502.000000	100.539086
1501.000000	100.538019
1500.000000	100.528222
1499.000000	100.504372
1498.000000	100.530881
1497.000000	100.531891
1496.000000	100.538893
1495.000000	100.517037
1494.000000	100.521275
1493.000000	100.541934
1492.000000	100.541687
1491.000000	100.519997
1490.000000	100.533955
1489.000000	100.512729
1488.000000	100.511638
1487.000000	100.536046
1486.000000	100.524726
1485.000000	100.522443
1484.000000	100.510466
1483.000000	100.532865
1482.000000	100.523527
1481.000000	100.519996
1480.000000	100.515014
1479.000000	100.514855
1478.000000	100.535614
1477.000000	100.532548
1476.000000	100.529212
1475.000000	100.519110
1474.000000	100.525202
1473.000000	100.513247
1472.000000	100.507921
1471.000000	100.513710
1470.000000	100.505642
1469.000000	100.493511
1468.000000	100.513330
1467.000000	100.495648
1466.000000	100.495947
1465.000000	100.490919
1464.000000	100.495670
1463.000000	100.495751
1462.000000	100.501577
1461.000000	100.493774
1460.000000	100.515474
1459.000000	100.496319
1458.000000	100.495074
1457.000000	100.516986
1456.000000	100.500326
1455.000000	100.492733
1454.000000	100.491524
1453.000000	100.489153
1452.000000	100.496830
1451.000000	100.480055
1450.000000	100.467893
1449.000000	100.488509
1448.000000	100.479852
1447.000000	100.474862
1446.000000	100.471343
1445.000000	100.474501
1444.000000	100.482144
1443.000000	100.483686
1442.000000	100.474086
1441.000000	100.460333
1440.000000	100.463518
1439.000000	100.446506
1438.000000	100.443940
1437.000000	100.454178
1436.000000	100.446612
1435.000000	100.444393
1434.000000	100.439478
1433.000000	100.436220
1432.000000	100.433382
1431.000000	100.443114
1430.000000	100.448724
1429.000000	100.436229
1428.000000	100.433688
1427.000000	100.431647
1426.000000	100.439806
1425.000000	100.431757
1424.000000	100.411122
1423.000000	100.412090
1422.000000	100.433801
1421.000000	100.435787
1420.000000	100.424668
1419.000000	100.426929
1418.000000	100.431629
1417.000000	100.422595
1416.000000	100.427698
1415.000000	100.426907
1414.000000	100.422979
1413.000000	100.418759
1412.000000	100.442326
1411.000000	100.451936
1410.000000	100.442967
1409.000000	100.436109
1408.000000	100.435914
1407.000000	100.446415
1406.000000	100.458695
1405.000000	100.475975
1404.000000	100.480564
1403.000000	100.474846
1402.000000	100.475907
1401.000000	100.483491
1400.000000	100.488960
1399.000000	100.491491
1398.000000	100.499431
1397.000000	100.513156
1396.000000	100.524668
1395.000000	100.519315
1394.000000	100.518200
1393.000000	100.533429
1392.000000	100.545478
1391.000000	100.546731
1390.000000	100.557425
1389.000000	100.559862
1388.000000	100.552265
1387.000000	100.566971
1386.000000	100.579865
1385.000000	100.580823
1384.000000	100.587086
1383.000000	100.582961
1382.000000	100.581003
1381.000000	100.587298
1380.000000	100.587485
1379.000000	100.596682
1378.000000	100.600209
1377.000000	100.596757
1376.000000	100.607635
1375.000000	100.609455
1374.000000	100.599667
1373.000000	100.607322
1372.000000	100.628649
1371.000000	100.629431
1370.000000	100.614281
1369.000000	100.630171
1368.000000	100.632825
1367.000000	100.619679
1366.000000	100.629614
1365.000000	100.650269
1364.000000	100.647108
1363.000000	100.649785
1362.000000	100.651413
1361.000000	100.640354
1360.000000	100.638222
1359.000000	100.647826
1358.000000	100.645637
1357.000000	100.645269
1356.000000	100.652654
1355.000000	100.652677
1354.000000	100.653677
1353.000000	100.647381
1352.000000	100.645257
1351.000000	100.658291
1350.000000	100.661949
1349.000000	100.660838
1348.000000	100.657401
1347.000000	100.662132
1346.000000	100.664189
1345.000000	100.660029
1344.000000	100.666631
1343.000000	100.668780
1342.000000	100.670255
1341.000000	100.674207
1340.000000	100.668734
1339.000000	100.674188
1338.000000	100.679571
1337.000000	100.676538
1336.000000	100.682849
1335.000000	100.680740
1334.000000	100.682539
1333.000000	100.680331
1332.000000	100.693795
1331.000000	100.699432
1330.000000	100.691366
1329.000000	100.694613
1328.000000	100.708800
1327.000000	100.702437
1326.000000	100.706839
1325.000000	100.702527
1324.000000	100.707071
1323.000000	100.700655
1322.000000	100.704562
1321.000000	100.712787
1320.000000	100.720595
1319.000000	100.712441
1318.000000	100.719424
1317.000000	100.722540
1316.000000	100.730436
1315.000000	100.729634
1314.000000	100.740601
1313.000000	100.730470
1312.000000	100.725081
1311.000000	100.734865
1310.000000	100.741062
1309.000000	100.739086
1308.000000	100.740431
1307.000000	100.742844
1306.000000	100.741639
1305.000000	100.741712
1304.000000	100.744883
1303.000000	100.748381
1302.000000	100.769507
1301.000000	100.755902
1300.000000	100.766612
1299.000000	100.767678
1298.000000	100.760605
1297.000000	100.784610
1296.000000	100.790223
1295.000000	100.789288
1294.000000	100.774723
1293.000000	100.781124
1292.000000	100.771759
1291.000000	100.790001
1290.000000	100.791558
1289.000000	100.767548
1288.000000	100.793934
1287.000000	100.793639
1286.000000	100.793934
1285.000000	100.783897
1284.000000	100.798026
1283.000000	100.811944
1282.000000	100.814022
1281.000000	100.812750
1280.000000	100.804283
1279.000000	100.818423
1278.000000	100.822927
1277.000000	100.821681
1276.000000	100.820492
1275.000000	100.825869
1274.000000	100.837385
1273.000000	100.843032
1272.000000	100.832410
1271.000000	100.830509
1270.000000	100.838116
1269.000000	100.838563
1268.000000	100.835310
1267.000000	100.865477
1266.000000	100.854455
1265.000000	100.848556
1264.000000	100.857694
1263.000000	100.871230
1262.000000	100.874602
1261.000000	100.877224
1260.000000	100.877391
1259.000000	100.887160
1258.000000	100.877723
1257.000000	100.898460
1256.000000	100.893825
1255.000000	100.895035
1254.000000	100.904015
1253.000000	100.912487
1252.000000	100.915903
1251.000000	100.933732
1250.000000	100.906394
1249.000000	100.914308
1248.000000	100.928128
1247.000000	100.936261
1246.000000	100.934734
1245.000000	100.942809
1244.000000	100.937783
1243.000000	100.946291
1242.000000	100.952651
1241.000000	100.958703
1240.000000	100.972572
1239.000000	100.977214
1238.000000	100.973472
1237.000000	100.985465
1236.000000	100.980609
1235.000000	100.984492
1234.000000	100.998049
1233.000000	100.995222
1232.000000	101.003026
1231.000000	101.018819
1230.000000	101.020618
1229.000000	101.024814
1228.000000	101.033230
1227.000000	101.033269
1226.000000	101.043794
1225.000000	101.054300
1224.000000	101.042052
1223.000000	101.048474
1222.000000	101.053238
1221.000000	101.046552
1220.000000	101.048670
1219.000000	101.069723
1218.000000	101.084132
1217.000000	101.084700
1216.000000	101.100736
1215.000000	101.097326
1214.000000	101.095424
1213.000000	101.103992
1212.000000	101.116713
1211.000000	101.121616
1210.000000	101.114022
1209.000000	101.121526
1208.000000	101.136409
1207.000000	101.135161
1206.000000	101.156499
1205.000000	101.161806
1204.000000	101.162572
1203.000000	101.159944
1202.000000	101.162258
1201.000000	101.185722
1200.000000	101.183552
1199.000000	101.182961
1198.000000	101.200862
1197.000000	101.207141
1196.000000	101.200928
1195.000000	101.207927
1194.000000	101.220500
1193.000000	101.234920
1192.000000	101.245579
1191.000000	101.238969
1190.000000	101.245221
1189.000000	101.244658
1188.000000	101.254577
1187.000000	101.264314
1186.000000	101.273360
1185.000000	101.283834
1184.000000	101.284164
1183.000000	101.290904
1182.000000	101.310155
1181.000000	101.309389
1180.000000	101.315184
1179.000000	101.339718
1178.000000	101.333098
1177.000000	101.325039
1176.000000	101.344728
1175.000000	101.358598
1174.000000	101.354100
1173.000000	101.365187
1172.000000	101.377465
1171.000000	101.388089
1170.000000	101.404010
1169.000000	101.410036
1168.000000	101.407514
1167.000000	101.418831
1166.000000	101.437839
1165.000000	101.437387
1164.000000	101.440975
1163.000000	101.460081
1162.000000	101.470346
1161.000000	101.481975
1160.000000	101.493472
1159.000000	101.502439
1158.000000	101.502055
1157.000000	101.511129
1156.000000	101.519388
1155.000000	101.523578
1154.000000	101.532548
1153.000000	101.545123
1152.000000	101.561919
1151.000000	101.577241
1150.000000	101.577034
1149.000000	101.581225
1148.000000	101.588323
1147.000000	101.605916
1146.000000	101.619544
1145.000000	101.623372
1144.000000	101.632764
1143.000000	101.643120
1142.000000	101.651939
1141.000000	101.654468
1140.000000	101.654970
1139.000000	101.673662
1138.000000	101.692897
1137.000000	101.708401
1136.000000	101.719969
1135.000000	101.726573
1134.000000	101.736547
1133.000000	101.744958
1132.000000	101.756237
1131.000000	101.761968
1130.000000	101.770773
1129.000000	101.791026
1128.000000	101.803066
1127.000000	101.812670
1126.000000	101.823767
1125.000000	101.825987
1124.000000	101.851252
1123.000000	101.869143
1122.000000	101.881363
1121.000000	101.892982
1120.000000	101.899647
1119.000000	101.900058
1118.000000	101.914526
1117.000000	101.928014
1116.000000	101.953797
1115.000000	101.969759
1114.000000	101.985395
1113.000000	101.991024
1112.000000	101.998619
1111.000000	102.019165
1110.000000	102.025611
1109.000000	102.042973
1108.000000	102.062047
1107.000000	102.061988
1106.000000	102.070149
1105.000000	102.085422
1104.000000	102.113629
1103.000000	102.128765
1102.000000	102.130088
1101.000000	102.150035
1100.000000	102.165817
1099.000000	102.185193
1098.000000	102.194169
1097.000000	102.208394
1096.000000	102.244391
1095.000000	102.247516
1094.000000	102.263098
1093.000000	102.275983
1092.000000	102.284118
1091.000000	102.301604
1090.000000	102.322302
1089.000000	102.331498
1088.000000	102.353978
1087.000000	102.369101
1086.000000	102.388391
1085.000000	102.407307
1084.000000	102.432528
1083.000000	102.439070
1082.000000	102.459049
1081.000000	102.465795
1080.000000	102.488271
1079.000000	102.509962
1078.000000	102.522715
1077.000000	102.542465
1076.000000	102.567089
1075.000000	102.583345
1074.000000	102.614928
1073.000000	102.626007
1072.000000	102.623609
1071.000000	102.663965
1070.000000	102.683855
1069.000000	102.695705
1068.000000	102.703853
1067.000000	102.746427
1066.000000	102.763291
1065.000000	102.769908
1064.000000	102.805376
1063.000000	102.825267
1062.000000	102.845989
1061.000000	102.860668
1060.000000	102.892761
1059.000000	102.908627
1058.000000	102.923806
1057.000000	102.941685
1056.000000	102.971127
1055.000000	102.984769
1054.000000	103.020633
1053.000000	103.017449
1052.000000	103.050469
1051.000000	103.073631
1050.000000	103.113720
1049.000000	103.123353
1048.000000	103.133360
1047.000000	103.160618
1046.000000	103.219420
1045.000000	103.222761
1044.000000	103.258927
1043.000000	103.263698
1042.000000	103.294861
1041.000000	103.332881
1040.000000	103.375848
1039.000000	103.361982
1038.000000	103.411953
1037.000000	103.438183
1036.000000	103.460462
1035.000000	103.492533
1034.000000	103.510377
1033.000000	103.554071
1032.000000	103.554412
1031.000000	103.590431
1030.000000	103.612606
1029.000000	103.662920
1028.000000	103.705810
1027.000000	103.706950
1026.000000	103.766071
1025.000000	103.797351
1024.000000	103.813721
1023.000000	103.841572
1022.000000	103.850111
1021.000000	103.936395
1020.000000	103.929151
1019.000000	103.954329
1018.000000	104.001484
1017.000000	104.041835
1016.000000	104.072850
1015.000000	104.121362
1014.000000	104.125818
1013.000000	104.158709
1012.000000	104.190253
1011.000000	104.259321
1010.000000	104.281270
1009.000000	104.346106
1008.000000	104.367587
1007.000000	104.402147
1006.000000	104.322932
1005.000000	104.390654
1004.000000	104.408901
1003.000000	104.452584
1002.000000	104.470940
1001.000000	104.527441
1000.000000	104.586175
999.000000	104.607423
998.000000	104.772913
997.000000	104.816338
996.000000	105.040770
995.000000	105.049809
994.000000	104.814758
993.000000	104.872387
992.000000	104.870615
991.000000	104.959760
990.000000	104.983798
989.000000	105.020013
988.000000	105.073783
987.000000	105.253095
986.000000	105.291192
985.000000	105.312415
984.000000	105.352891
983.000000	105.394162
982.000000	105.437422
981.000000	105.482137
980.000000	105.565918
979.000000	105.615579
978.000000	105.641952
977.000000	105.695134
976.000000	105.730988
975.000000	105.804122
974.000000	105.858518
973.000000	105.914250
972.000000	105.984631
971.000000	106.029914
970.000000	106.091994
969.000000	106.149547
968.000000	106.188917
967.000000	106.244757
966.000000	106.295611
965.000000	106.354853
964.000000	106.438888
963.000000	106.523660
962.000000	106.600321
961.000000	106.658610
960.000000	106.691653
959.000000	106.772200
958.000000	106.843062
957.000000	106.908502
956.000000	106.972486
955.000000	107.101054
954.000000	107.112143
953.000000	107.172648
952.000000	107.261317
951.000000	107.328274
950.000000	107.421249
949.000000	107.492961
948.000000	107.537781
947.000000	107.623809
946.000000	107.744011
945.000000	107.812289
944.000000	107.827098
943.000000	107.966218
942.000000	108.080703
941.000000	107.997626
940.000000	107.998199
939.000000	108.076405
938.000000	108.153006
937.000000	108.203859
936.000000	108.280313
935.000000	108.479208
934.000000	108.706000
933.000000	108.792975
932.000000	108.870015
931.000000	108.958590
930.000000	109.020230
929.000000	109.139322
928.000000	109.223078
927.000000	109.303944
926.000000	109.431122
925.000000	109.530622
924.000000	109.600875
923.000000	109.698788
922.000000	109.836465
921.000000	109.931384
920.000000	110.013660
919.000000	110.158010
918.000000	110.260698
917.000000	110.339150
916.000000	110.445843
915.000000	110.561558
914.000000	110.648476
913.000000	110.786894
912.000000	110.902820
911.000000	110.979420
910.000000	111.101960
909.000000	111.244404
908.000000	111.333912
907.000000	111.472821
906.000000	111.570148
905.000000	111.600774
904.000000	111.740324
903.000000	111.991576
902.000000	112.082536
901.000000	112.023898
900.000000	112.121230
899.000000	112.233615
898.000000	112.344760
897.000000	112.510018
896.000000	112.631223
895.000000	112.808475
894.000000	113.017805
893.000000	113.151369
892.000000	113.296155
891.000000	113.494898
890.000000	113.668744
889.000000	113.715978
888.000000	113.765260
887.000000	114.018383
886.000000	114.190290
885.000000	114.288948
884.000000	114.483436
883.000000	114.540142
882.000000	114.593672
881.000000	114.823458
880.000000	115.038359
879.000000	115.127573
878.000000	115.261663
877.000000	115.335355
876.000000	115.345228
875.000000	115.543684
874.000000	115.784168
873.000000	115.963022
872.000000	116.066797
871.000000	116.230711
870.000000	116.338213
869.000000	116.307532
868.000000	116.473888
867.000000	116.616163
866.000000	116.637523
865.000000	116.767793
864.000000	116.923896
863.000000	116.959966
862.000000	117.026913
861.000000	117.032643
860.000000	117.585059
859.000000	117.908470
858.000000	118.306038
857.000000	118.254259
856.000000	117.933335
855.000000	118.203020
854.000000	118.564690
853.000000	118.921509
852.000000	118.693454
851.000000	118.784062
850.000000	118.920877
849.000000	118.981291
848.000000	119.072114
847.000000	119.200877
846.000000	119.110744
845.000000	119.181436
844.000000	119.372727
843.000000	119.392959
842.000000	119.462942
841.000000	119.556985
840.000000	119.638411
839.000000	119.589253
838.000000	119.579773
837.000000	119.870723
836.000000	119.905933
835.000000	119.864947
834.000000	119.941805
833.000000	119.907455
832.000000	120.062968
831.000000	120.157966
830.000000	120.150027
829.000000	120.037772
828.000000	120.178360
827.000000	120.261683
826.000000	120.179790
825.000000	119.958233
824.000000	120.070984
823.000000	120.148773
822.000000	120.076464
821.000000	120.161379
820.000000	120.112941
819.000000	120.148619
818.000000	120.157633
817.000000	120.166327
816.000000	119.983570
815.000000	119.929311
814.000000	119.996510
813.000000	119.911510
812.000000	119.813041
811.000000	119.774754
810.000000	119.931555
809.000000	119.812798
808.000000	119.738786
807.000000	119.690039
806.000000	119.739283
805.000000	119.608517
804.000000	119.544081
803.000000	119.522420
802.000000	119.562218
801.000000	119.508208
800.000000	119.376736
799.000000	119.289309
798.000000	119.224040
797.000000	119.187715
796.000000	119.172268
795.000000	119.121444
794.000000	118.990915
793.000000	119.062677
792.000000	118.715266
791.000000	118.858230
790.000000	118.875393
789.000000	118.797252
788.000000	118.761888
787.000000	118.579841
786.000000	118.567045
785.000000	118.604803
784.000000	118.479758
783.000000	118.535611
782.000000	118.409512
781.000000	118.192165
780.000000	118.310858
779.000000	118.076990
778.000000	118.103552
777.000000	117.958661
776.000000	117.882065
775.000000	117.936219
774.000000	117.876207
773.000000	117.716800
772.000000	117.749238
771.000000	117.625463
770.000000	117.606309
769.000000	117.535150
768.000000	117.527712
767.000000	117.470117
766.000000	117.436178
765.000000	117.233382
764.000000	117.260253
763.000000	117.205650
762.000000	117.222513
761.000000	117.097995
760.000000	117.064278
759.000000	116.962762
758.000000	116.986429
757.000000	116.915018
756.000000	116.894490
755.000000	116.796799
754.000000	116.666748
753.000000	116.668100
752.000000	116.595011
751.000000	116.633519
750.000000	116.545952
749.000000	116.569233
748.000000	116.506265
747.000000	116.408812
746.000000	116.303568
745.000000	116.308485
744.000000	116.315341
743.000000	116.182957
742.000000	116.243544
741.000000	116.194860
740.000000	116.094270
739.000000	116.049933
738.000000	116.042780
737.000000	115.976481
736.000000	115.995133
735.000000	115.855662
734.000000	115.877581
733.000000	115.793124
732.000000	115.762394
731.000000	115.761508
730.000000	115.679619
729.000000	115.683906
728.000000	115.682451
727.000000	115.625373
726.000000	115.580292
725.000000	115.562565
724.000000	115.526018
723.000000	115.507271
722.000000	115.465596
721.000000	115.391854
720.000000	115.358482
719.000000	115.399806
718.000000	115.325376
717.000000	115.270910
716.000000	115.262554
715.000000	115.251189
714.000000	115.222492
713.000000	115.186976
712.000000	115.143627
711.000000	115.154879
710.000000	115.105406
709.000000	115.069103
708.000000	115.046526
707.000000	114.988331
706.000000	114.932448
705.000000	114.932534
704.000000	114.929066
703.000000	114.909147
702.000000	114.838304
701.000000	114.803611
700.000000	114.773317
699.000000	114.768204
698.000000	114.792817
697.000000	114.755249
696.000000	114.698698
695.000000	114.662650
694.000000	114.642650
693.000000	114.673168
692.000000	114.615047
691.000000	114.575548
690.000000	114.544859
689.000000	114.580998
688.000000	114.540580
687.000000	114.480254
686.000000	114.465137
685.000000	114.477505
684.000000	114.417955
683.000000	114.368396
682.000000	114.368814
681.000000	114.389281
680.000000	114.349212
679.000000	114.305646
678.000000	114.307431
677.000000	114.297408
676.000000	114.249255
675.000000	114.229448
674.000000	114.209902
673.000000	114.190566
672.000000	114.166603
671.000000	114.107863
670.000000	114.090700
669.000000	114.129162
668.000000	114.105334
667.000000	114.075748
666.000000	114.048030
665.000000	114.044833
664.000000	114.024822
663.000000	114.023012
662.000000	114.016295
661.000000	113.967696
660.000000	113.950943
659.000000	113.947740
658.000000	113.914344
657.000000	113.899070
656.000000	113.905946
655.000000	113.891433
654.000000	113.860371
653.000000	113.820798
652.000000	113.817269
651.000000	113.805139
650.000000	113.790612
649.000000	113.781068
648.000000	113.745206
647.000000	113.750825
646.000000	113.744956
645.000000	113.725511
644.000000	113.716735
643.000000	113.682699
642.000000	113.679342
641.000000	113.664816
640.000000	113.663102
639.000000	113.650627
638.000000	113.648046
637.000000	113.640817
636.000000	113.630126
635.000000	113.623852
634.000000	113.597020
633.000000	113.582895
632.000000	113.562438
631.000000	113.559622
630.000000	113.553197
629.000000	113.516834
628.000000	113.515048
627.000000	113.510471
626.000000	113.501461
625.000000	113.486974
624.000000	113.464640
623.000000	113.478106
622.000000	113.493011
621.000000	113.463740
620.000000	113.460874
619.000000	113.463975
618.000000	113.454948
617.000000	113.442009
616.000000	113.451547
615.000000	113.424185
614.000000	113.391724
613.000000	113.412257
612.000000	113.402998
611.000000	113.404147
610.000000	113.411098
609.000000	113.400672
608.000000	113.377011
607.000000	113.349870
606.000000	113.391665
605.000000	113.405350
604.000000	113.402934
603.000000	113.340874
602.000000	113.354763
601.000000	113.348287
600.000000	113.334522
599.000000	113.305783
598.000000	113.316155
597.000000	113.333346
596.000000	113.350445
595.000000	113.306281
594.000000	113.289586
593.000000	113.305944
592.000000	113.320418
591.000000	113.306054
590.000000	113.267396
589.000000	113.293308
588.000000	113.281306
587.000000	113.248881
586.000000	113.274717
585.000000	113.232454
584.000000	113.219162
583.000000	113.252659
582.000000	113.266049
581.000000	113.254899
580.000000	113.258864
579.000000	113.235480
578.000000	113.267054
577.000000	113.238580
576.000000	113.275427
575.000000	113.221719
574.000000	113.231001
573.000000	113.210638
572.000000	113.239392
571.000000	113.220698
570.000000	113.210644
569.000000	113.275817
568.000000	113.221938
567.000000	113.162998
566.000000	113.260256
565.000000	113.198696
564.000000	113.174813
563.000000	113.203805
562.000000	113.176185
561.000000	113.212574
560.000000	113.190176
559.000000	113.171422
558.000000	113.222181
557.000000	113.220772
556.000000	113.168829
555.000000	113.173190
554.000000	113.209626
553.000000	113.150644
552.000000	113.156798
551.000000	113.137480
550.000000	113.140697
549.000000	113.129096
548.000000	113.140451
547.000000	113.158111
546.000000	113.142055
545.000000	113.100165
544.000000	113.103037
543.000000	113.124606
542.000000	113.098662
541.000000	113.110390
540.000000	113.084587
539.000000	113.149458
538.000000	113.077623
537.000000	113.075083
536.000000	113.029918
535.000000	113.015980
534.000000	113.045839
533.000000	113.082000
532.000000	113.032945
531.000000	113.037366
530.000000	112.995148
529.000000	113.043715
528.000000	112.980283
527.000000	112.947177
526.000000	113.006698
525.000000	112.958637
524.000000	112.936854
523.000000	112.948052
522.000000	112.923950
521.000000	112.991987
520.000000	112.941249
519.000000	112.909850
518.000000	112.924772
517.000000	112.952112
516.000000	112.906804
515.000000	112.925919
514.000000	112.904710
513.000000	112.856457
512.000000	112.842293
511.000000	112.860901
510.000000	112.848596
509.000000	112.819826
508.000000	112.815880
507.000000	112.824377
506.000000	112.779380
505.000000	112.762204
504.000000	112.752478
503.000000	112.762412
502.000000	112.721062
501.000000	112.748032
500.000000	112.751578
499.000000	112.717305
498.000000	112.699022
497.000000	112.693854
496.000000	112.683982
495.000000	112.631128
494.000000	112.635405
493.000000	112.639792
492.000000	112.610488
491.000000	112.616923
490.000000	112.557189
489.000000	112.580173
488.000000	112.561521
487.000000	112.556193
486.000000	112.526556
485.000000	112.518262
484.000000	112.503451
483.000000	112.510030
482.000000	112.438044
481.000000	112.441625
480.000000	112.412820
479.000000	112.413562
478.000000	112.398397
477.000000	112.343545
476.000000	112.296032
475.000000	112.334473
474.000000	112.264801
473.000000	112.273056
472.000000	112.236300
471.000000	112.193244
470.000000	112.193018
469.000000	112.163948
468.000000	112.126519
467.000000	112.089988
466.000000	112.061279
465.000000	112.011922
464.000000	111.973962
463.000000	111.930057
462.000000	111.910615
461.000000	111.904165
460.000000	111.878729
459.000000	111.832391
458.000000	111.752295
457.000000	111.751016
456.000000	111.749521
455.000000	111.696430
454.000000	111.627905
453.000000	111.588650
452.000000	111.563212
451.000000	111.512419
450.000000	111.454741
449.000000	111.421589
448.000000	111.357913
447.000000	111.304588
446.000000	111.279182
445.000000	111.241886
444.000000	111.142319
443.000000	111.091189
442.000000	111.047362
441.000000	111.019884
440.000000	110.982181
439.000000	110.907565
438.000000	110.838628
437.000000	110.802090
436.000000	110.730230
435.000000	110.668569
434.000000	110.595630
433.000000	110.571247
432.000000	110.518852
431.000000	110.444070
430.000000	110.375624
429.000000	110.312100
428.000000	110.244496
427.000000	110.180332
426.000000	110.095048
425.000000	110.012128
424.000000	109.944640
423.000000	109.872900
422.000000	109.803520
421.000000	109.691433
420.000000	109.600103
419.000000	109.551023
418.000000	109.469910
417.000000	109.381353
416.000000	109.259108
415.000000	109.120036
414.000000	109.029328
413.000000	108.962936
412.000000	108.873134
411.000000	108.761661
410.000000	108.613474
409.000000	108.504277
408.000000	108.419254
407.000000	108.301662
406.000000	108.170027
405.000000	108.029925
404.000000	107.877125
403.000000	107.739844
402.000000	107.620131
401.000000	107.458122
400.000000	107.305462
399.000000	107.135270
398.000000	106.984224
397.000000	106.840079
396.000000	106.615792
395.000000	106.460686
394.000000	106.298723
393.000000	106.090391
392.000000	105.908814
391.000000	105.670590
390.000000	105.453736
389.000000	105.225207
388.000000	104.963902
387.000000	104.702584
386.000000	104.515980
385.000000	104.286284
384.000000	104.018031
383.000000	103.726283
382.000000	103.466326
381.000000	103.228044
380.000000	102.961236
379.000000	102.723879
378.000000	102.403277
377.000000	102.176711
376.000000	101.944268
375.000000	101.617671
374.000000	101.375941
373.000000	101.160523
372.000000	100.939752
371.000000	100.677389
370.000000	100.448744
369.000000	100.053261
368.000000	99.744897
367.000000	99.529420
366.000000	99.239231
365.000000	98.854848
364.000000	98.452404
363.000000	98.192916
362.000000	97.847322
361.000000	97.462342
360.000000	97.045965
359.000000	96.660614
358.000000	96.286733
357.000000	95.771925
356.000000	95.261022
355.000000	94.864725
354.000000	94.288239
353.000000	93.740412
352.000000	93.063535
351.000000	92.397958
350.000000	91.749312
349.000000	91.037826
348.000000	90.132834
347.000000	89.192686
346.000000	88.313692
345.000000	87.222848
344.000000	86.264321
343.000000	85.201973
342.000000	84.034864
341.000000	82.611876
340.000000	81.193946
339.000000	79.660296
338.000000	78.163650
337.000000	76.316275
336.000000	74.516530
335.000000	72.584167
334.000000	70.219244
333.000000	67.769227
332.000000	65.169090
331.000000	62.017521
330.000000	58.579428
329.000000	54.894176
328.000000	50.630096
327.000000	46.320635
326.000000	41.734480
325.000000	37.036928
324.000000	32.406860
323.000000	27.556552
322.000000	22.902273
321.000000	18.702610
320.000000	15.029860
319.000000	12.088477
318.000000	9.902439
317.000000	8.441959
316.000000	7.610330
315.000000	7.215660
314.000000	7.138194
313.000000	7.262531
312.000000	7.486616
311.000000	7.728792
310.000000	7.952131
309.000000	8.165378
308.000000	8.324640
307.000000	8.456086
306.000000	8.546764
305.000000	8.621651
304.000000	8.686940
303.000000	8.710472
302.000000	8.752205
301.000000	8.741800
300.000000	8.719558
